Typical Measured Spectrum of Semrock LP02-568RU Optical Filter	
For wavelengths between 320 and 1120 nm, values near or below 3e-7 (Optical Density 6.5) are measurement noise limited.
For wavelengths < 320 nm and > 1120 nm, values near or below 3e-6 (Optical Density 5.5) are measurement noise limited. 
Data format:  Wavelength (nm) <tab> Transmission (0 to 1)
300.0	0.21183
300.2	0.22364
300.4	0.21742
300.6	0.20488
300.8	0.20275
301.0	0.21517
301.2	0.24227
301.4	0.26353
301.6	0.26243
301.8	0.25192
302.0	0.25098
302.2	0.26539
302.4	0.29065
302.6	0.30488
302.8	0.29515
303.0	0.27426
303.2	0.26273
303.4	0.27479
303.6	0.30226
303.8	0.32896
304.0	0.33514
304.2	0.31507
304.4	0.30078
304.6	0.29959
304.8	0.31764
305.0	0.337
305.2	0.33076
305.4	0.30516
305.6	0.27483
305.8	0.26268
306.0	0.27432
306.2	0.30695
306.4	0.34029
306.6	0.35472
306.8	0.34247
307.0	0.32372
307.2	0.3164
307.4	0.33393
307.6	0.36355
307.8	0.38073
308.0	0.35736
308.2	0.31211
308.4	0.28143
308.6	0.27385
308.8	0.29343
309.0	0.33686
309.2	0.37031
309.4	0.36406
309.6	0.32256
309.8	0.28724
310.0	0.27743
310.2	0.29985
310.4	0.3376
310.6	0.35217
310.8	0.3113
311.0	0.24636
311.2	0.202
311.4	0.18411
311.6	0.19558
311.8	0.23806
312.0	0.305
312.2	0.35324
312.4	0.32941
312.6	0.27354
312.8	0.23965
313.0	0.24171
313.2	0.2858
313.4	0.35629
313.6	0.38381
313.8	0.32059
314.0	0.23321
314.2	0.18281
314.4	0.16973
314.6	0.18968
314.8	0.24978
315.0	0.29253
315.2	0.35436
315.4	0.31083
315.6	0.22472
315.8	0.17234
316.0	0.15715
316.2	0.17547
316.4	0.23882
316.6	0.32456
316.8	0.34368
317.0	0.24844
317.2	0.16539
317.4	0.12619
317.6	0.11941
317.8	0.1414
318.0	0.21151
318.2	0.29021
318.4	0.27186
318.6	0.17922
318.8	0.11901
319.0	0.09619
319.2	0.09879
319.4	0.12836
319.6	0.21258
319.8	0.29212
320.0	0.21744
320.2	0.1105
320.4	0.0628
320.6	0.046
320.8	0.04253
321.0	0.04747
321.2	0.06754
321.4	0.12456
321.6	0.21226
321.8	0.17665
322.0	0.09051
322.2	0.04928
322.4	0.03487
322.6	0.03084
322.8	0.03421
323.0	0.04727
323.2	0.08631
323.4	0.18151
323.6	0.23383
323.8	0.13636
324.0	0.07167
324.2	0.04961
324.4	0.04424
324.6	0.05083
324.8	0.07486
325.0	0.13313
325.2	0.17181
325.4	0.10956
325.6	0.05275
325.8	0.02985
326.0	0.02076
326.2	0.01675
326.4	0.01582
326.6	0.01669
326.8	0.01948
327.0	0.02621
327.2	0.03813
327.4	0.05503
327.6	0.07119
327.8	0.07597
328.0	0.07177
328.2	0.06684
328.4	0.06737
328.6	0.07474
328.8	0.09287
329.0	0.12307
329.2	0.16558
329.4	0.20167
329.6	0.20458
329.8	0.19029
330.0	0.17894
330.2	0.18006
330.4	0.19515
330.6	0.22416
330.8	0.25731
331.0	0.27947
331.2	0.2787
331.4	0.26153
331.6	0.24246
331.8	0.23363
332.0	0.23415
332.2	0.24575
332.4	0.26345
332.6	0.27796
332.8	0.28052
333.0	0.27247
333.2	0.25853
333.4	0.24624
333.6	0.24173
333.8	0.24336
334.0	0.25127
334.2	0.26249
334.4	0.27208
334.6	0.27443
334.8	0.26876
335.0	0.26182
335.2	0.2552
335.4	0.25206
335.6	0.25316
335.8	0.25705
336.0	0.26176
336.2	0.26401
336.4	0.26324
336.6	0.25927
336.8	0.25174
337.0	0.24824
337.2	0.24551
337.4	0.24445
337.6	0.24611
337.8	0.25135
338.0	0.25513
338.2	0.25715
338.4	0.25702
338.6	0.25531
338.8	0.25136
339.0	0.24847
339.2	0.24651
339.4	0.24733
339.6	0.24817
339.8	0.25122
340.0	0.25275
340.2	0.25284
340.4	0.25275
340.6	0.25029
340.8	0.2474
341.0	0.24496
341.2	0.24422
341.4	0.24467
341.6	0.24574
341.8	0.24785
342.0	0.25156
342.2	0.25231
342.4	0.25128
342.6	0.25015
342.8	0.24755
343.0	0.24492
343.2	0.24318
343.4	0.24311
343.6	0.24527
343.8	0.24773
344.0	0.25015
344.2	0.25021
344.4	0.24971
344.6	0.24672
344.8	0.24282
345.0	0.2403
345.2	0.24003
345.4	0.24215
345.6	0.24579
345.8	0.25113
346.0	0.25468
346.2	0.25615
346.4	0.25489
346.6	0.25132
346.8	0.24436
347.0	0.24073
347.2	0.23933
347.4	0.24231
347.6	0.2467
347.8	0.25262
348.0	0.25819
348.2	0.26054
348.4	0.25987
348.6	0.25559
348.8	0.24902
349.0	0.24472
349.2	0.24251
349.4	0.24274
349.6	0.24794
349.8	0.25515
350.0	0.26136
350.2	0.26617
350.4	0.26641
350.6	0.26267
350.8	0.25691
351.0	0.25099
351.2	0.24711
351.4	0.24797
351.6	0.25114
351.8	0.25927
352.0	0.26733
352.2	0.27373
352.4	0.27602
352.6	0.27321
352.8	0.26619
353.0	0.25923
353.2	0.25388
353.4	0.2533
353.6	0.25034
353.8	0.24695
354.0	0.25607
354.2	0.26574
354.4	0.26868
354.6	0.26749
354.8	0.26151
355.0	0.25285
355.2	0.24559
355.4	0.24231
355.6	0.2427
355.8	0.2487
356.0	0.25827
356.2	0.27054
356.4	0.27954
356.6	0.28296
356.8	0.27954
357.0	0.27102
357.2	0.26097
357.4	0.25232
357.6	0.24936
357.8	0.25221
358.0	0.26017
358.2	0.2716
358.4	0.28646
358.6	0.2965
358.8	0.30087
359.0	0.29632
359.2	0.28725
359.4	0.30036
359.6	0.29117
359.8	0.28849
360.0	0.29278
360.2	0.30418
360.4	0.31987
360.6	0.33708
360.8	0.34836
361.0	0.35166
361.2	0.34482
361.4	0.33053
361.6	0.31628
361.8	0.30343
362.0	0.29995
362.2	0.30674
362.4	0.3197
362.6	0.3378
362.8	0.35802
363.0	0.37692
363.2	0.38501
363.4	0.37713
363.6	0.36117
363.8	0.34317
364.0	0.32722
364.2	0.32033
364.4	0.32115
364.6	0.33272
364.8	0.3535
365.0	0.37842
365.2	0.40712
365.4	0.42196
365.6	0.4181
365.8	0.39973
366.0	0.37712
366.2	0.35391
366.4	0.34247
366.6	0.30222
366.8	0.30929
367.0	0.32672
367.2	0.35286
367.4	0.38221
367.6	0.40579
367.8	0.41308
368.0	0.40546
368.2	0.38404
368.4	0.35705
368.6	0.33641
368.8	0.32424
369.0	0.32433
369.2	0.337
369.4	0.35921
369.6	0.39152
369.8	0.42553
370.0	0.45009
370.2	0.45599
370.4	0.43925
370.6	0.41018
370.8	0.37763
371.0	0.35501
371.2	0.34549
371.4	0.34924
371.6	0.36749
371.8	0.3972
372.0	0.43667
372.2	0.47471
372.4	0.49784
372.6	0.49626
372.8	0.47161
373.0	0.43447
373.2	0.40046
373.4	0.37694
373.6	0.36678
373.8	0.37044
374.0	0.39014
374.2	0.42533
374.4	0.47265
374.6	0.52146
374.8	0.55463
375.0	0.55767
375.2	0.53078
375.4	0.48752
375.6	0.44777
375.8	0.41805
376.0	0.40525
376.2	0.41033
376.4	0.43388
376.6	0.47315
376.8	0.52606
377.0	0.57685
377.2	0.60523
377.4	0.59698
377.6	0.55415
377.8	0.49882
378.0	0.44389
378.2	0.41029
378.4	0.39589
378.6	0.40065
378.8	0.42778
379.0	0.47685
379.2	0.54522
379.4	0.61366
379.6	0.67979
379.8	0.69939
380.0	0.65961
380.2	0.58764
380.4	0.51275
380.6	0.45632
380.8	0.42279
381.0	0.40718
381.2	0.41628
381.4	0.44652
381.6	0.50173
381.8	0.5821
382.0	0.67203
382.2	0.74211
382.4	0.75182
382.6	0.69312
382.8	0.60963
383.0	0.53374
383.2	0.47957
383.4	0.45102
383.6	0.44744
383.8	0.46722
384.0	0.5152
384.2	0.58992
384.4	0.68878
384.6	0.78419
384.8	0.82666
385.0	0.79526
385.2	0.71002
385.4	0.60832
385.6	0.52613
385.8	0.46944
386.0	0.44113
386.2	0.43717
386.4	0.46018
386.6	0.50211
386.8	0.57811
387.0	0.67917
387.2	0.78665
387.4	0.85619
387.6	0.85037
387.8	0.77627
388.0	0.66925
388.2	0.58147
388.4	0.5218
388.6	0.49097
388.8	0.48616
389.0	0.50574
389.2	0.55436
389.4	0.62702
389.6	0.71788
389.8	0.80139
390.0	0.84178
390.2	0.81522
390.4	0.73664
390.6	0.64707
390.8	0.57004
391.0	0.51785
391.2	0.49394
391.4	0.49531
391.6	0.52263
391.8	0.57884
392.0	0.66024
392.2	0.75929
392.4	0.84714
392.6	0.89681
392.8	0.86805
393.0	0.78136
393.2	0.67597
393.4	0.58571
393.6	0.52224
393.8	0.48474
394.0	0.47704
394.2	0.49514
394.4	0.53962
394.6	0.60987
394.8	0.70286
395.0	0.79905
395.2	0.86463
395.4	0.85486
395.6	0.78258
395.8	0.68359
396.0	0.59408
396.2	0.52752
396.4	0.48771
396.6	0.47167
396.8	0.4787
397.0	0.51122
397.2	0.56808
397.4	0.64671
397.6	0.73957
397.8	0.81487
398.0	0.83895
398.2	0.79402
398.4	0.7085
398.6	0.61662
398.8	0.54122
399.0	0.49044
399.2	0.46243
399.4	0.45633
399.6	0.47217
399.8	0.50944
400.0	0.56811
400.2	0.64334
400.4	0.71964
400.6	0.76674
400.8	0.75817
401.0	0.69319
401.2	0.6137
401.4	0.53952
401.6	0.48415
401.8	0.45039
402.0	0.43632
402.2	0.44258
402.4	0.4671
402.6	0.51206
402.8	0.57715
403.0	0.65201
403.2	0.71912
403.4	0.74709
403.6	0.72344
403.8	0.66196
404.0	0.58359
404.2	0.51257
404.4	0.46167
404.6	0.42889
404.8	0.4155
405.0	0.422
405.2	0.44447
405.4	0.48658
405.6	0.54627
405.8	0.61728
406.0	0.68197
406.2	0.71686
406.4	0.70605
406.6	0.65143
406.8	0.58283
407.0	0.51741
407.2	0.46851
407.4	0.43614
407.6	0.4235
407.8	0.42611
408.0	0.44479
408.2	0.47808
408.4	0.52385
408.6	0.57443
408.8	0.6157
409.0	0.63267
409.2	0.61523
409.4	0.57659
409.6	0.52517
409.8	0.4751
410.0	0.4362
410.2	0.41117
410.4	0.40078
410.6	0.40297
410.8	0.41879
411.0	0.4459
411.2	0.48524
411.4	0.52712
411.6	0.5638
411.8	0.5807
412.0	0.57295
412.2	0.54253
412.4	0.49701
412.6	0.4564
412.8	0.42383
413.0	0.40299
413.2	0.39384
413.4	0.39765
413.6	0.41211
413.8	0.43732
414.0	0.4691
414.2	0.50239
414.4	0.52713
414.6	0.53464
414.8	0.52239
415.0	0.49212
415.2	0.4578
415.4	0.42159
415.6	0.39233
415.8	0.37226
416.0	0.36265
416.2	0.36267
416.4	0.37268
416.6	0.39156
416.8	0.41725
417.0	0.44362
417.2	0.46621
417.4	0.47842
417.6	0.47457
417.8	0.45658
418.0	0.42923
418.2	0.40073
418.4	0.37728
418.6	0.36001
418.8	0.35136
419.0	0.3513
419.2	0.35907
419.4	0.38415
419.6	0.41026
419.8	0.43297
420.0	0.45068
420.2	0.45816
420.4	0.45357
420.6	0.43644
420.8	0.41378
421.0	0.39179
421.2	0.36937
421.4	0.35321
421.6	0.34384
421.8	0.34236
422.0	0.34828
422.2	0.36123
422.4	0.37752
422.6	0.39992
422.8	0.42061
423.0	0.43536
423.2	0.44026
423.4	0.43425
423.6	0.41794
423.8	0.39131
424.0	0.37103
424.2	0.35435
424.4	0.34228
424.6	0.33637
424.8	0.33646
425.0	0.34107
425.2	0.35247
425.4	0.36203
425.6	0.37182
425.8	0.37727
426.0	0.37788
426.2	0.37427
426.4	0.36616
426.6	0.35232
426.8	0.343
427.0	0.33585
427.2	0.33107
427.4	0.32996
427.6	0.33244
427.8	0.33604
428.0	0.3407
428.2	0.34454
428.4	0.34705
428.6	0.34561
428.8	0.34091
429.0	0.33486
429.2	0.3271
429.4	0.3215
429.6	0.31734
429.8	0.31538
430.0	0.31659
430.2	0.31936
430.4	0.32343
430.6	0.32717
430.8	0.32902
431.0	0.32662
431.2	0.32134
431.4	0.31277
431.6	0.30256
431.8	0.29304
432.0	0.28541
432.2	0.28107
432.4	0.28095
432.6	0.28459
432.8	0.29152
433.0	0.29977
433.2	0.30771
433.4	0.31215
433.6	0.31181
433.8	0.30565
434.0	0.29522
434.2	0.28244
434.4	0.26993
434.6	0.26002
434.8	0.2539
435.0	0.25223
435.2	0.25547
435.4	0.26353
435.6	0.27424
435.8	0.2851
436.0	0.29278
436.2	0.29335
436.4	0.28627
436.6	0.27331
436.8	0.25689
437.0	0.24125
437.2	0.22915
437.4	0.22243
437.6	0.22105
437.8	0.22731
438.0	0.24063
438.2	0.25786
438.4	0.27583
438.6	0.28813
438.8	0.28789
439.0	0.27284
439.2	0.2481
439.4	0.22365
439.6	0.20343
439.8	0.18529
440.0	0.17556
440.2	0.17291
440.4	0.1789
440.6	0.19318
440.8	0.21589
441.0	0.24393
441.2	0.26951
441.4	0.278
441.6	0.26205
441.8	0.22953
442.0	0.1944
442.2	0.16595
442.4	0.14569
442.6	0.13689
442.8	0.1368
443.0	0.14606
443.2	0.16598
443.4	0.19687
443.6	0.23465
443.8	0.26245
444.0	0.25713
444.2	0.21906
444.4	0.17286
444.6	0.13676
444.8	0.11347
445.0	0.10083
445.2	0.09652
445.4	0.10092
445.6	0.11478
445.8	0.14311
446.0	0.18779
446.2	0.23526
446.4	0.24452
446.6	0.18927
446.8	0.13351
447.0	0.09761
447.2	0.07722
447.4	0.06843
447.6	0.06742
447.8	0.07465
448.0	0.09343
448.2	0.13207
448.4	0.19445
448.6	0.22923
448.8	0.17933
449.0	0.11202
449.2	0.07169
449.4	0.05218
449.6	0.04375
449.8	0.04314
450.0	0.05001
450.2	0.06995
450.4	0.11762
450.6	0.18646
450.8	0.1706
451.0	0.09469
451.2	0.0501
451.4	0.03223
451.6	0.02575
451.8	0.02479
452.0	0.02964
452.2	0.04757
452.4	0.11744
452.6	0.15299
452.8	0.07341
453.0	0.02913
453.2	0.01639
453.4	0.01239
453.6	0.01247
453.8	0.01897
454.0	0.05141
454.2	0.10866
454.4	0.04645
454.6	0.01244
454.8	0.00627
455.0	0.00494
455.2	0.00611
455.4	0.02275
455.6	0.06525
455.8	0.01509
456.0	0.00268
456.2	0.00151
456.4	0.00214
456.6	0.01837
456.8	0.01222
457.0	6.8632e-04
457.2	2.311e-04
457.4	0.00164
457.6	0.00159
457.8	6.7849e-05
458.0	2.0081e-05
458.2	1.9945e-06
458.4	1.6359e-06
458.6	3.2617e-07
458.8	3.3567e-07
459.0	4.8107e-07
459.2	3.6896e-07
459.4	1.0496e-06
459.6	3.2341e-07
459.8	6.1785e-07
460.0	4.5781e-07
460.2	4.4862e-07
460.4	3.1919e-07
460.6	3.1865e-07
460.8	3.1794e-07
461.0	3.914e-07
461.2	3.1285e-07
461.4	3.1159e-07
461.6	3.1053e-07
461.8	3.099e-07
462.0	1.3251e-06
462.2	5.5484e-07
462.4	1.0107e-06
462.6	9.8816e-07
462.8	4.6727e-07
463.0	3.0472e-07
463.2	3.0411e-07
463.4	3.0322e-07
463.6	3.0232e-07
463.8	3.032e-07
464.0	3.2807e-07
464.2	3.0119e-07
464.4	2.9966e-07
464.6	2.9855e-07
464.8	2.9749e-07
465.0	8.5355e-07
465.2	2.9574e-07
465.4	4.9722e-07
465.6	2.9367e-07
465.8	2.9236e-07
466.0	2.9154e-07
466.2	5.6738e-07
466.4	2.8953e-07
466.6	5.3926e-07
466.8	2.8839e-07
467.0	2.8689e-07
467.2	5.4489e-07
467.4	7.5456e-07
467.6	2.8389e-07
467.8	2.8327e-07
468.0	2.8317e-07
468.2	2.8276e-07
468.4	2.8211e-07
468.6	2.8098e-07
468.8	8.2382e-07
469.0	2.7884e-07
469.2	3.8065e-07
469.4	2.6251e-07
469.6	1.1993e-07
469.8	1.1936e-07
470.0	2.993e-07
470.2	2.5934e-07
470.4	1.1776e-07
470.6	1.6901e-07
470.8	1.1719e-07
471.0	1.5163e-07
471.2	1.5166e-07
471.4	2.3198e-07
471.6	1.1542e-07
471.8	1.939e-07
472.0	1.1475e-07
472.2	1.6319e-07
472.4	1.1414e-07
472.6	1.7479e-07
472.8	1.3461e-07
473.0	1.3901e-07
473.2	1.1231e-07
473.4	1.1182e-07
473.6	1.1155e-07
473.8	1.1138e-07
474.0	2.8401e-07
474.2	1.1029e-07
474.4	1.2191e-07
474.6	1.0939e-07
474.8	1.0904e-07
475.0	1.1141e-07
475.2	1.4964e-07
475.4	4.2066e-07
475.6	1.0756e-07
475.8	2.4518e-07
476.0	1.101e-07
476.2	3.7516e-07
476.4	1.8576e-07
476.6	2.7991e-07
476.8	1.3144e-07
477.0	3.1361e-07
477.2	1.9245e-07
477.4	1.8215e-07
477.6	1.1803e-07
477.8	1.3882e-07
478.0	1.0302e-07
478.2	1.639e-07
478.4	1.0189e-07
478.6	1.1571e-07
478.8	1.01e-07
479.0	1.0063e-07
479.2	1.0034e-07
479.4	1.1818e-07
479.6	1.7315e-07
479.8	1.8816e-07
480.0	2.0247e-07
480.2	9.8294e-08
480.4	1.606e-07
480.6	9.7563e-08
480.8	1.8461e-07
481.0	9.8441e-08
481.2	9.6363e-08
481.4	9.5959e-08
481.6	1.0364e-07
481.8	1.6467e-07
482.0	1.7446e-07
482.2	1.7369e-07
482.4	9.4097e-08
482.6	2.4355e-07
482.8	9.331e-08
483.0	9.2802e-08
483.2	2.5309e-07
483.4	9.2091e-08
483.6	9.4851e-08
483.8	2.2592e-07
484.0	3.5355e-07
484.2	9.0505e-08
484.4	9.0073e-08
484.6	8.9715e-08
484.8	2.2523e-07
485.0	1.5605e-07
485.2	8.8636e-08
485.4	8.8293e-08
485.6	4.8313e-07
485.8	1.5829e-07
486.0	2.1168e-07
486.2	1.0673e-07
486.4	8.6234e-08
486.6	8.6023e-08
486.8	1.6307e-07
487.0	1.0098e-07
487.2	1.6952e-07
487.4	1.3157e-07
487.6	8.3984e-08
487.8	2.3557e-07
488.0	8.3354e-08
488.2	8.3063e-08
488.4	8.2622e-08
488.6	8.2161e-08
488.8	8.1805e-08
489.0	8.1501e-08
489.2	8.1128e-08
489.4	1.6185e-07
489.6	8.0545e-08
489.8	1.0831e-07
490.0	1.2581e-07
490.2	7.9477e-08
490.4	1.5486e-07
490.6	9.8527e-08
490.8	1.1699e-07
491.0	7.8244e-08
491.2	7.7682e-08
491.4	1.4505e-07
491.6	1.0034e-07
491.8	7.6738e-08
492.0	7.6466e-08
492.2	8.5692e-08
492.4	1.0468e-07
492.6	1.3559e-07
492.8	7.5214e-08
493.0	7.4781e-08
493.2	7.5606e-08
493.4	7.4286e-08
493.6	7.4125e-08
493.8	2.752e-07
494.0	2.2211e-07
494.2	7.3041e-08
494.4	7.2634e-08
494.6	7.2298e-08
494.8	7.2033e-08
495.0	1.8275e-07
495.2	2.09e-07
495.4	7.1215e-08
495.6	8.9534e-08
495.8	2.2356e-07
496.0	1.4021e-07
496.2	6.9872e-08
496.4	6.9691e-08
496.6	6.9407e-08
496.8	8.4092e-08
497.0	1.0141e-07
497.2	1.9276e-07
497.4	6.822e-08
497.6	6.8062e-08
497.8	2.8767e-07
498.0	9.7049e-08
498.2	1.7231e-07
498.4	7.8978e-08
498.6	6.6663e-08
498.8	1.9925e-07
499.0	6.627e-08
499.2	1.1199e-07
499.4	8.6292e-08
499.6	6.5251e-08
499.8	6.5507e-08
500.0	9.8593e-08
500.2	9.1379e-08
500.4	7.7144e-08
500.6	8.7695e-08
500.8	6.2366e-08
501.0	9.3863e-08
501.2	1.064e-07
501.4	6.136e-08
501.6	8.9836e-08
501.8	3.7812e-07
502.0	7.5436e-08
502.2	6.0242e-08
502.4	1.7998e-07
502.6	9.554e-08
502.8	5.9369e-08
503.0	1.6062e-07
503.2	5.893e-08
503.4	6.2881e-08
503.6	1.5217e-07
503.8	1.7178e-07
504.0	9.6233e-08
504.2	5.8586e-08
504.4	6.6686e-08
504.6	1.01e-07
504.8	1.8013e-07
505.0	5.8182e-08
505.2	9.7766e-08
505.4	5.7865e-08
505.6	5.7578e-08
505.8	5.7321e-08
506.0	9.3637e-08
506.2	8.1813e-08
506.4	6.2286e-08
506.6	9.4521e-08
506.8	5.5591e-08
507.0	7.5521e-08
507.2	5.4814e-08
507.4	1.5335e-07
507.6	5.4327e-08
507.8	7.0104e-08
508.0	5.3762e-08
508.2	1.0051e-07
508.4	5.3461e-08
508.6	1.6779e-07
508.8	7.1935e-08
509.0	5.312e-08
509.2	2.2437e-07
509.4	5.4023e-08
509.6	8.2486e-08
509.8	6.2866e-08
510.0	1.9276e-07
510.2	5.2685e-08
510.4	1.4027e-07
510.6	5.9548e-08
510.8	1.3469e-07
511.0	8.8524e-08
511.2	6.7664e-08
511.4	5.2522e-08
511.6	1.5437e-07
511.8	5.9918e-08
512.0	8.8533e-08
512.2	5.0875e-08
512.4	5.9795e-08
512.6	1.01e-07
512.8	5.0236e-08
513.0	1.2777e-07
513.2	6.3485e-08
513.4	5.2841e-08
513.6	4.9981e-08
513.8	4.9897e-08
514.0	4.9779e-08
514.2	4.9757e-08
514.4	4.9726e-08
514.6	1.3791e-07
514.8	4.9526e-08
515.0	7.0545e-08
515.2	9.0828e-08
515.4	5.8938e-08
515.6	4.9007e-08
515.8	5.002e-08
516.0	1.4564e-07
516.2	2.5406e-07
516.4	4.8158e-08
516.6	1.355e-07
516.8	4.7646e-08
517.0	4.729e-08
517.2	5.2204e-08
517.4	7.0752e-08
517.6	7.4688e-08
517.8	1.0572e-07
518.0	4.6279e-08
518.2	9.0535e-08
518.4	8.8017e-08
518.6	4.5912e-08
518.8	1.4314e-07
519.0	1.0661e-07
519.2	1.1882e-07
519.4	6.4035e-08
519.6	4.877e-08
519.8	9.9788e-08
520.0	1.0399e-07
520.2	9.0818e-08
520.4	1.3383e-07
520.6	9.0617e-08
520.8	4.5232e-08
521.0	5.269e-08
521.2	1.0051e-07
521.4	6.1124e-08
521.6	1.232e-07
521.8	9.3404e-08
522.0	1.3756e-07
522.2	6.5799e-08
522.4	7.1657e-08
522.6	8.5361e-08
522.8	1.2451e-07
523.0	4.3042e-08
523.2	1.3409e-07
523.4	4.2817e-08
523.6	4.9324e-08
523.8	7.468e-08
524.0	1.4865e-07
524.2	5.1715e-08
524.4	8.089e-08
524.6	4.2231e-08
524.8	9.909e-08
525.0	4.2476e-08
525.2	4.203e-08
525.4	4.1961e-08
525.6	4.1858e-08
525.8	4.1731e-08
526.0	4.1668e-08
526.2	4.1599e-08
526.4	4.1505e-08
526.6	5.4418e-08
526.8	6.8715e-08
527.0	8.0623e-08
527.2	4.0915e-08
527.4	4.0802e-08
527.6	4.0783e-08
527.8	5.839e-08
528.0	7.4521e-08
528.2	7.0912e-08
528.4	1.2081e-07
528.6	4.0154e-08
528.8	6.3565e-08
529.0	1.5053e-07
529.2	9.094e-08
529.4	3.9806e-08
529.6	3.9714e-08
529.8	3.9701e-08
530.0	3.9617e-08
530.2	5.7453e-08
530.4	4.8208e-08
530.6	5.3306e-08
530.8	7.6188e-08
531.0	3.927e-08
531.2	1.2937e-07
531.4	3.8961e-08
531.6	1.027e-07
531.8	3.9455e-08
532.0	7.4185e-08
532.2	6.7027e-08
532.4	4.934e-08
