Typical Measured Spectrum of Semrock FF01-515/LP Optical Filter	
For wavelengths between 320 and 1120 nm, values near or below 3e-7 (Optical Density 6.5) are measurement noise limited.
For wavelengths < 320 nm and > 1120 nm, values near or below 3e-6 (Optical Density 5.5) are measurement noise limited. 
Data format:  Wavelength (nm) <tab> Transmission (0 to 1)
341.0	1.0e-07
341.2	1.0e-07
341.4	1.0e-07
341.6	1.0e-07
341.8	1.0e-07
342.0	1.0e-07
342.2	1.0e-07
342.4	1.0e-07
342.6	1.0e-07
342.8	1.0e-07
343.0	1.0e-07
343.2	1.0e-07
343.4	1.0e-07
343.6	1.0e-07
343.8	1.0e-07
344.0	1.0e-07
344.2	1.0e-07
344.4	1.0e-07
344.6	1.0e-07
344.8	1.0e-07
345.0	1.0e-07
345.2	1.0e-07
345.4	1.0e-07
345.6	1.0e-07
345.8	1.0e-07
346.0	1.0e-07
346.2	1.0e-07
346.4	1.0e-07
346.6	1.0e-07
346.8	1.0e-07
347.0	1.0e-07
347.2	1.0e-07
347.4	1.0e-07
347.6	1.0e-07
347.8	1.0e-07
348.0	1.0e-07
348.2	1.0e-07
348.4	1.0e-07
348.6	1.0e-07
348.8	1.0e-07
349.0	1.0e-07
349.2	1.0e-07
349.4	1.0e-07
349.6	1.0e-07
349.8	1.0e-07
350.0	1.0e-07
350.2	1.0e-07
350.4	1.0e-07
350.6	1.0e-07
350.8	1.0e-07
351.0	1.0e-07
351.2	1.0e-07
351.4	1.0e-07
351.6	1.0e-07
351.8	1.0e-07
352.0	1.0e-07
352.2	1.0e-07
352.4	1.0e-07
352.6	1.0e-07
352.8	1.0e-07
353.0	1.0e-07
353.2	1.0e-07
353.4	1.0e-07
353.6	1.0e-07
353.8	1.0e-07
354.0	1.0e-07
354.2	1.0e-07
354.4	1.0e-07
354.6	1.0e-07
354.8	1.0e-07
355.0	1.0e-07
355.2	1.0e-07
355.4	1.0e-07
355.6	1.0e-07
355.8	1.0e-07
356.0	1.0e-07
356.2	1.0e-07
356.4	1.0e-07
356.6	1.0e-07
356.8	1.0e-07
357.0	1.0e-07
357.2	1.0e-07
357.4	1.0e-07
357.6	1.0e-07
357.8	1.0e-07
358.0	1.0e-07
358.2	1.0e-07
358.4	1.0e-07
358.6	1.0e-07
358.8	1.0e-07
359.0	1.0e-07
359.2	1.0e-07
359.4	1.0e-07
359.6	1.0e-07
359.8	1.0e-07
360.0	1.0e-07
360.2	1.0e-07
360.4	1.0e-07
360.6	1.0e-07
360.8	1.0e-07
361.0	1.0e-07
361.2	1.0e-07
361.4	1.0e-07
361.6	1.0e-07
361.8	1.0e-07
362.0	1.0e-07
362.2	1.0e-07
362.4	1.0e-07
362.6	1.0e-07
362.8	1.0e-07
363.0	1.0e-07
363.2	1.0e-07
363.4	1.0e-07
363.6	1.0e-07
363.8	1.0e-07
364.0	1.0e-07
364.2	1.0e-07
364.4	1.0e-07
364.6	1.0e-07
364.8	1.0e-07
365.0	1.0e-07
365.2	1.0e-07
365.4	1.0e-07
365.6	1.0e-07
365.8	1.0e-07
366.0	1.0e-07
366.2	1.0e-07
366.4	1.0e-07
366.6	1.0e-07
366.8	1.0e-07
367.0	1.0e-07
367.2	1.0e-07
367.4	1.0e-07
367.6	1.0e-07
367.8	1.0e-07
368.0	1.0e-07
368.2	1.0e-07
368.4	1.0e-07
368.6	1.0e-07
368.8	1.0e-07
369.0	1.0e-07
369.2	1.0e-07
369.4	1.0e-07
369.6	1.0e-07
369.8	1.0e-07
370.0	1.0e-07
370.2	1.0e-07
370.4	1.0e-07
370.6	1.0e-07
370.8	1.0e-07
371.0	1.0e-07
371.2	1.0e-07
371.4	1.0e-07
371.6	1.0e-07
371.8	1.0e-07
372.0	1.0e-07
372.2	1.0e-07
372.4	1.0e-07
372.6	1.0e-07
372.8	1.0e-07
373.0	1.0e-07
373.2	1.0e-07
373.4	1.0e-07
373.6	1.0e-07
373.8	1.0e-07
374.0	1.0e-07
374.2	1.0e-07
374.4	1.0e-07
374.6	1.0e-07
374.8	1.0e-07
375.0	1.0e-07
375.2	1.0e-07
375.4	1.0e-07
375.6	1.0e-07
375.8	1.0e-07
376.0	1.0e-07
376.2	1.0e-07
376.4	1.0e-07
376.6	1.0e-07
376.8	1.0e-07
377.0	1.0e-07
377.2	1.0e-07
377.4	1.0e-07
377.6	1.0e-07
377.8	1.0e-07
378.0	1.0e-07
378.2	1.0e-07
378.4	1.0e-07
378.6	1.0e-07
378.8	1.0e-07
379.0	1.0e-07
379.2	1.0e-07
379.4	1.0e-07
379.6	1.0e-07
379.8	1.0e-07
380.0	1.0e-07
380.2	1.0e-07
380.4	1.0e-07
380.6	1.0e-07
380.8	1.0e-07
381.0	1.0e-07
381.2	1.0e-07
381.4	1.0e-07
381.6	1.0e-07
381.8	1.0e-07
382.0	1.0e-07
382.2	1.0e-07
382.4	1.0e-07
382.6	1.0e-07
382.8	1.0e-07
383.0	1.0e-07
383.2	1.0e-07
383.4	1.0e-07
383.6	1.0e-07
383.8	1.0e-07
384.0	1.0e-07
384.2	1.0e-07
384.4	1.0e-07
384.6	1.0e-07
384.8	1.0e-07
385.0	1.0e-07
385.2	1.0e-07
385.4	1.0e-07
385.6	1.0e-07
385.8	1.0e-07
386.0	1.0e-07
386.2	1.0e-07
386.4	1.0e-07
386.6	1.0e-07
386.8	1.0e-07
387.0	1.0e-07
387.2	1.0e-07
387.4	1.0e-07
387.6	1.0e-07
387.8	1.0e-07
388.0	1.0e-07
388.2	1.0e-07
388.4	1.0e-07
388.6	1.0e-07
388.8	1.0e-07
389.0	1.0e-07
389.2	1.0e-07
389.4	1.0e-07
389.6	1.0e-07
389.8	1.0e-07
390.0	1.0e-07
390.2	1.0e-07
390.4	1.0e-07
390.6	1.0e-07
390.8	1.0e-07
391.0	1.0e-07
391.2	1.0e-07
391.4	1.0e-07
391.6	1.0e-07
391.8	1.0e-07
392.0	1.0e-07
392.2	1.0e-07
392.4	1.0e-07
392.6	1.0e-07
392.8	1.0e-07
393.0	1.0e-07
393.2	1.0e-07
393.4	1.0e-07
393.6	1.0e-07
393.8	1.0e-07
394.0	1.0e-07
394.2	1.0e-07
394.4	1.0e-07
394.6	1.0e-07
394.8	1.0e-07
395.0	1.0e-07
395.2	1.0e-07
395.4	1.0e-07
395.6	1.0e-07
395.8	1.0e-07
396.0	1.0e-07
396.2	1.0e-07
396.4	1.0e-07
396.6	1.0e-07
396.8	1.0e-07
397.0	1.0e-07
397.2	1.0e-07
397.4	1.0e-07
397.6	1.0e-07
397.8	1.0e-07
398.0	1.0e-07
398.2	1.0e-07
398.4	1.0e-07
398.6	1.0e-07
398.8	1.0e-07
399.0	1.0e-07
399.2	1.0e-07
399.4	1.0e-07
399.6	1.0e-07
399.8	1.0e-07
400.0	1.0e-07
400.2	1.0e-07
400.4	1.0e-07
400.6	1.0e-07
400.8	1.0e-07
401.0	1.0e-07
401.2	1.0e-07
401.4	1.0e-07
401.6	1.0e-07
401.8	1.0e-07
402.0	1.0e-07
402.2	1.0e-07
402.4	1.0e-07
402.6	1.0e-07
402.8	1.0e-07
403.0	1.0e-07
403.2	1.0e-07
403.4	1.0e-07
403.6	1.0e-07
403.8	1.0e-07
404.0	1.0e-07
404.2	1.0e-07
404.4	1.0e-07
404.6	1.0e-07
404.8	1.0e-07
405.0	1.0e-07
405.2	1.0e-07
405.4	1.0e-07
405.6	1.0e-07
405.8	1.0e-07
406.0	1.0e-07
406.2	1.0e-07
406.4	1.0e-07
406.6	1.0e-07
406.8	1.0e-07
407.0	1.0e-07
407.2	1.0e-07
407.4	1.0e-07
407.6	1.0e-07
407.8	1.0e-07
408.0	1.0e-07
408.2	1.0e-07
408.4	1.0e-07
408.6	1.0e-07
408.8	1.0e-07
409.0	1.0e-07
409.2	1.0e-07
409.4	1.0e-07
409.6	1.0e-07
409.8	1.0e-07
410.0	1.0e-07
410.2	1.0e-07
410.4	1.0e-07
410.6	1.0e-07
410.8	1.0e-07
411.0	1.0e-07
411.2	1.0e-07
411.4	1.0e-07
411.6	1.0e-07
411.8	1.0e-07
412.0	1.0e-07
412.2	1.0e-07
412.4	1.0e-07
412.6	1.0e-07
412.8	1.0e-07
413.0	1.0e-07
413.2	1.0e-07
413.4	1.0e-07
413.6	1.0e-07
413.8	1.0e-07
414.0	1.0e-07
414.2	1.0e-07
414.4	1.0e-07
414.6	1.0e-07
414.8	1.0e-07
415.0	1.0e-07
415.2	1.0e-07
415.4	1.0e-07
415.6	1.0e-07
415.8	1.0e-07
416.0	1.0e-07
416.2	1.0e-07
416.4	1.0e-07
416.6	1.0e-07
416.8	1.0e-07
417.0	1.0e-07
417.2	1.0e-07
417.4	1.0e-07
417.6	1.0e-07
417.8	1.0e-07
418.0	1.0e-07
418.2	1.0e-07
418.4	1.0e-07
418.6	1.0e-07
418.8	1.0e-07
419.0	1.0e-07
419.2	1.0e-07
419.4	1.0e-07
419.6	1.0e-07
419.8	1.0e-07
420.0	1.0e-07
420.2	1.0e-07
420.4	1.0e-07
420.6	1.0e-07
420.8	1.0e-07
421.0	1.0e-07
421.2	1.0e-07
421.4	1.0e-07
421.6	1.0e-07
421.8	1.0e-07
422.0	1.0e-07
422.2	1.0e-07
422.4	1.0e-07
422.6	1.0e-07
422.8	1.0e-07
423.0	1.0e-07
423.2	1.0e-07
423.4	1.0e-07
423.6	1.0e-07
423.8	1.0e-07
424.0	1.0e-07
424.2	1.0e-07
424.4	1.0e-07
424.6	1.0e-07
424.8	1.0e-07
425.0	1.0e-07
425.2	1.0e-07
425.4	1.0e-07
425.6	1.0e-07
425.8	1.0e-07
426.0	1.0e-07
426.2	1.0e-07
426.4	1.0e-07
426.6	1.0e-07
426.8	1.0e-07
427.0	1.0e-07
427.2	1.0e-07
427.4	1.0e-07
427.6	1.0e-07
427.8	1.0e-07
428.0	1.0e-07
428.2	1.0e-07
428.4	1.0e-07
428.6	1.0e-07
428.8	1.0e-07
429.0	1.0e-07
429.2	1.0e-07
429.4	1.0e-07
429.6	1.0e-07
429.8	1.0e-07
430.0	1.0e-07
430.2	1.0e-07
430.4	1.0e-07
430.6	1.0e-07
430.8	1.0e-07
431.0	1.0e-07
431.2	1.0e-07
431.4	1.0e-07
431.6	1.0e-07
431.8	1.0e-07
432.0	1.0e-07
432.2	1.0e-07
432.4	1.0e-07
432.6	1.0e-07
432.8	1.0e-07
433.0	1.0e-07
433.2	1.0e-07
433.4	1.0e-07
433.6	1.0e-07
433.8	1.0e-07
434.0	1.0e-07
434.2	1.0e-07
434.4	1.0e-07
434.6	1.0e-07
434.8	1.0e-07
435.0	1.0e-07
435.2	1.0e-07
435.4	1.0e-07
435.6	1.0e-07
435.8	1.0e-07
436.0	1.0e-07
436.2	1.0e-07
436.4	1.0e-07
436.6	1.0e-07
436.8	1.0e-07
437.0	1.0e-07
437.2	1.0e-07
437.4	1.0e-07
437.6	1.0e-07
437.8	1.0e-07
438.0	1.0e-07
438.2	1.0e-07
438.4	1.0e-07
438.6	1.0e-07
438.8	1.0e-07
439.0	1.0e-07
439.2	1.0e-07
439.4	1.0e-07
439.6	1.0e-07
439.8	1.0e-07
440.0	1.0e-07
440.2	1.0e-07
440.4	1.0e-07
440.6	1.0e-07
440.8	1.0e-07
441.0	1.0e-07
441.2	1.0e-07
441.4	1.0e-07
441.6	1.0e-07
441.8	1.0e-07
442.0	1.0e-07
442.2	1.0e-07
442.4	1.0e-07
442.6	1.0e-07
442.8	1.0e-07
443.0	1.0e-07
443.2	1.0e-07
443.4	1.0e-07
443.6	1.0e-07
443.8	1.0e-07
444.0	1.0e-07
444.2	1.0e-07
444.4	1.0e-07
444.6	1.0e-07
444.8	1.0e-07
445.0	1.0e-07
445.2	1.0e-07
445.4	1.0e-07
445.6	1.0e-07
445.8	1.0e-07
446.0	1.0e-07
446.2	1.0e-07
446.4	1.0e-07
446.6	1.0e-07
446.8	1.0e-07
447.0	1.0e-07
447.2	1.0e-07
447.4	1.0e-07
447.6	1.0e-07
447.8	1.0e-07
448.0	1.0e-07
448.2	1.0e-07
448.4	1.0e-07
448.6	1.0e-07
448.8	1.0e-07
449.0	1.0e-07
449.2	1.0e-07
449.4	1.0e-07
449.6	1.0e-07
449.8	1.0e-07
450.0	1.0e-07
450.2	1.0e-07
450.4	1.0e-07
450.6	1.0e-07
450.8	1.0e-07
451.0	1.0e-07
451.2	1.0e-07
451.4	1.0e-07
451.6	1.0e-07
451.8	1.0e-07
452.0	1.0e-07
452.2	1.0e-07
452.4	1.0e-07
452.6	1.0e-07
452.8	1.0e-07
453.0	1.0e-07
453.2	1.0e-07
453.4	1.0e-07
453.6	1.0e-07
453.8	1.0e-07
454.0	1.0e-07
454.2	1.0e-07
454.4	1.0e-07
454.6	1.0e-07
454.8	1.0e-07
455.0	1.0e-07
455.2	1.0e-07
455.4	1.0e-07
455.6	1.0e-07
455.8	1.0e-07
456.0	1.0e-07
456.2	1.0e-07
456.4	1.0e-07
456.6	1.0e-07
456.8	1.0e-07
457.0	1.0e-07
457.2	1.0e-07
457.4	1.0e-07
457.6	1.0e-07
457.8	1.0e-07
458.0	1.0e-07
458.2	1.0e-07
458.4	1.0e-07
458.6	1.0e-07
458.8	1.0e-07
459.0	1.0e-07
459.2	1.0e-07
459.4	1.0e-07
459.6	1.0e-07
459.8	1.0e-07
460.0	1.0e-07
460.2	1.0e-07
460.4	1.0e-07
460.6	1.0e-07
460.8	1.0e-07
461.0	1.0e-07
461.2	1.0e-07
461.4	1.0e-07
461.6	1.0e-07
461.8	1.0e-07
462.0	1.0e-07
462.2	1.0e-07
462.4	1.0e-07
462.6	1.0e-07
462.8	1.0e-07
463.0	1.0e-07
463.2	1.0e-07
463.4	1.0e-07
463.6	1.0e-07
463.8	1.0e-07
464.0	1.0e-07
464.2	1.0e-07
464.4	1.0e-07
464.6	1.0e-07
464.8	1.0e-07
465.0	1.0e-07
465.2	1.0e-07
465.4	1.0e-07
465.6	1.0e-07
465.8	1.0e-07
466.0	1.0e-07
466.2	1.0e-07
466.4	1.0e-07
466.6	1.0e-07
466.8	1.0e-07
467.0	1.0e-07
467.2	1.0e-07
467.4	1.0e-07
467.6	1.0e-07
467.8	1.0e-07
468.0	1.0e-07
468.2	1.0e-07
468.4	1.0e-07
468.6	1.0e-07
468.8	1.0e-07
469.0	1.0e-07
469.2	1.0e-07
469.4	1.0e-07
469.6	1.0e-07
469.8	1.0e-07
470.0	1.0e-07
470.2	1.0e-07
470.4	1.0e-07
470.6	1.0e-07
470.8	1.0e-07
471.0	1.0e-07
471.2	1.0e-07
471.4	1.0e-07
471.6	1.0e-07
471.8	1.0e-07
472.0	1.0e-07
472.2	1.0e-07
472.4	1.0e-07
472.6	1.0e-07
472.8	1.0e-07
473.0	1.0e-07
473.2	1.0e-07
473.4	1.0e-07
473.6	1.0e-07
473.8	1.0e-07
474.0	1.0e-07
474.2	1.0e-07
474.4	1.0e-07
474.6	1.0e-07
474.8	1.0e-07
475.0	1.0e-07
475.2	1.0e-07
475.4	1.0e-07
475.6	1.0e-07
475.8	1.0e-07
476.0	1.0e-07
476.2	1.0e-07
476.4	1.0e-07
476.6	1.0e-07
476.8	1.0e-07
477.0	1.0e-07
477.2	1.0e-07
477.4	1.0e-07
477.6	1.0e-07
477.8	1.0e-07
478.0	1.0e-07
478.2	1.0e-07
478.4	1.0e-07
478.6	1.0e-07
478.8	1.0e-07
479.0	1.0e-07
479.2	1.0e-07
479.4	1.0e-07
479.6	1.0e-07
479.8	1.0e-07
480.0	1.0e-07
480.2	1.0e-07
480.4	1.0e-07
480.6	1.0e-07
480.8	1.0e-07
481.0	1.0e-07
481.2	1.0e-07
481.4	1.0e-07
481.6	1.0e-07
481.8	1.0e-07
482.0	1.0e-07
482.2	1.0e-07
482.4	1.0e-07
482.6	1.0e-07
482.8	1.0e-07
483.0	1.0e-07
483.2	1.0e-07
483.4	1.0e-07
483.6	1.0e-07
483.8	1.0e-07
484.0	1.0e-07
484.2	1.0e-07
484.4	1.0e-07
484.6	1.0e-07
484.8	1.0e-07
485.0	1.0e-07
485.2	1.0e-07
485.4	1.0e-07
485.6	1.0e-07
485.8	1.0e-07
486.0	1.0e-07
486.2	1.0e-07
486.4	1.0e-07
486.6	1.0e-07
486.8	1.0e-07
487.0	1.0e-07
487.2	1.0e-07
487.4	1.0e-07
487.6	1.0e-07
487.8	1.0e-07
488.0	1.0e-07
488.2	1.0e-07
488.4	1.0e-07
488.6	1.0e-07
488.8	1.0e-07
489.0	1.0e-07
489.2	1.0e-07
489.4	1.0e-07
489.6	1.0e-07
489.8	1.0e-07
490.0	1.0e-07
490.2	1.0e-07
490.4	1.0e-07
490.6	1.0e-07
490.8	1.0e-07
491.0	1.0e-07
491.2	1.0e-07
491.4	1.0e-07
491.6	1.0e-07
491.8	1.0e-07
492.0	1.0e-07
492.2	1.0e-07
492.4	1.0e-07
492.6	1.0e-07
492.8	1.0e-07
493.0	1.0e-07
493.2	1.0e-07
493.4	1.0e-07
493.6	1.0e-07
493.8	1.0e-07
494.0	1.0e-07
494.2	1.0e-07
494.4	1.0e-07
494.6	1.0e-07
494.8	1.0e-07
495.0	1.0e-07
495.2	1.0e-07
495.4	1.0e-07
495.6	1.0e-07
495.8	1.0e-07
496.0	1.0e-07
496.2	1.0e-07
496.4	1.0e-07
496.6	1.0e-07
496.8	1.0e-07
497.0	1.0e-07
497.2	1.0e-07
497.4	1.0e-07
497.6	1.0e-07
497.8	1.0e-07
498.0	1.0e-07
498.2	1.0e-07
498.4	1.0e-07
498.6	1.0e-07
498.8	1.0e-07
499.0	1.0e-07
499.2	1.0e-07
499.4	1.0e-07
499.6	1.0e-07
499.8	1.0e-07
500.0	1.0e-07
500.2	1.0e-07
500.4	1.0e-07
500.6	1.0e-07
500.8	1.0e-07
501.0	1.0e-07
501.2	1.0e-07
501.4	1.0e-07
501.6	1.0e-07
501.8	1.0e-07
502.0	1.0e-07
502.2	1.0e-07
502.4	1.0e-07
502.6	1.0e-07
502.8	1.0e-07
503.0	1.0e-07
503.2	1.0e-07
503.4	1.0e-07
503.6	1.0e-07
503.8	1.0e-07
504.0	1.0e-07
504.2	1.0e-07
504.4	1.0e-07
504.6	1.0e-07
504.8	1.0e-07
505.0	1.0e-07
505.2	1.0e-07
505.4	1.0074e-07
505.6	1.027e-07
505.8	1.0469e-07
506.0	1.0673e-07
506.2	1.088e-07
506.4	1.1091e-07
506.6	1.1307e-07
506.8	1.1526e-07
507.0	1.175e-07
507.2	1.1978e-07
507.4	1.2255e-07
507.6	1.2612e-07
507.8	1.2979e-07
508.0	1.3358e-07
508.2	1.3747e-07
508.4	1.4147e-07
508.6	1.4559e-07
508.8	1.4984e-07
509.0	1.542e-07
509.2	1.5869e-07
509.4	1.8499e-07
509.6	2.666e-07
509.8	3.8421e-07
510.0	5.5372e-07
510.2	7.98e-07
510.4	1.0403e-06
510.6	1.1523e-06
510.8	1.3507e-06
511.0	1.3267e-06
511.2	1.2677e-06
511.4	1.2113e-06
511.6	1.1502e-06
511.8	1.041e-06
512.0	1.0425e-06
512.2	1.2627e-06
512.4	1.5088e-06
512.6	1.4584e-06
512.8	1.4269e-06
513.0	1.3962e-06
513.2	1.3661e-06
513.4	1.3366e-06
513.6	1.3078e-06
513.8	1.2796e-06
514.0	1.252e-06
514.2	1.2251e-06
514.4	1.2161e-06
514.6	1.2393e-06
514.8	1.2629e-06
515.0	1.287e-06
515.2	1.3115e-06
515.4	1.3365e-06
515.6	1.362e-06
515.8	1.3879e-06
516.0	1.4144e-06
516.2	1.6044e-06
516.4	1.811e-06
516.6	1.8519e-06
516.8	2.7879e-06
517.0	3.6248e-06
517.2	4.6462e-06
517.4	6.3847e-06
517.6	9.9214e-06
517.8	1.63e-05
518.0	2.6015e-05
518.2	3.9938e-05
518.4	5.9104e-05
518.6	8.4748e-05
518.8	1.1556e-04
519.0	1.5554e-04
519.2	2.0737e-04
519.4	2.7595e-04
519.6	3.6995e-04
519.8	5.0568e-04
520.0	7.1546e-04
520.2	0.00105
520.4	0.00159
520.6	0.00248
520.8	0.00404
521.0	0.00703
521.2	0.01244
521.4	0.02152
521.6	0.03909
521.8	0.0736
522.0	0.14453
522.2	0.26771
522.4	0.44191
522.6	0.63944
522.8	0.80965
523.0	0.91842
523.2	0.95267
523.4	0.95866
523.6	0.96299
523.8	0.96458
524.0	0.96562
524.2	0.96942
524.4	0.97943
524.6	0.98307
524.8	0.97085
525.0	0.97226
525.2	0.97615
525.4	0.98167
525.6	0.97631
525.8	0.97493
526.0	0.98242
526.2	0.98803
526.4	0.97635
526.6	0.97506
526.8	0.98511
527.0	0.98115
527.2	0.9773
527.4	0.96932
527.6	0.97778
527.8	0.97672
528.0	0.97882
528.2	0.97227
528.4	0.97552
528.6	0.97744
528.8	0.97238
529.0	0.97004
529.2	0.97805
529.4	0.98767
529.6	0.98479
529.8	0.98204
530.0	0.98535
530.2	0.98468
530.4	0.98584
530.6	0.97864
530.8	0.97831
531.0	0.97753
531.2	0.97964
531.4	0.97413
531.6	0.97584
531.8	0.97237
532.0	0.97905
532.2	0.98392
532.4	0.97655
532.6	0.97354
532.8	0.97059
533.0	0.97757
533.2	0.97899
533.4	0.97921
533.6	0.98426
533.8	0.98518
534.0	0.98907
534.2	0.98509
534.4	0.97543
534.6	0.98547
534.8	0.98003
535.0	0.97493
535.2	0.97565
535.4	0.97181
535.6	0.9807
535.8	0.97145
536.0	0.96908
536.2	0.98038
536.4	0.98282
536.6	0.9807
536.8	0.98002
537.0	0.98061
537.2	0.978
537.4	0.98831
537.6	0.97842
537.8	0.97058
538.0	0.97548
538.2	0.98029
538.4	0.98412
538.6	0.98131
538.8	0.98925
539.0	0.98412
539.2	0.9789
539.4	0.97469
539.6	0.98391
539.8	0.97972
540.0	0.98744
540.2	0.99046
540.4	0.97369
540.6	0.97698
540.8	0.97652
541.0	0.97751
541.2	0.97617
541.4	0.97624
541.6	0.97037
541.8	0.97639
542.0	0.97465
542.2	0.97544
542.4	0.97395
542.6	0.9794
542.8	0.98175
543.0	0.98476
543.2	0.97757
543.4	0.97287
543.6	0.9791
543.8	0.97208
544.0	0.97264
544.2	0.98179
544.4	0.99122
544.6	0.98324
544.8	0.98371
545.0	0.97949
545.2	0.98489
545.4	0.97337
545.6	0.9754
545.8	0.97532
546.0	0.97495
546.2	0.97753
546.4	0.97539
546.6	0.979
546.8	0.97805
547.0	0.97548
547.2	0.97678
547.4	0.97328
547.6	0.96908
547.8	0.97148
548.0	0.97774
548.2	0.9757
548.4	0.97808
548.6	0.97358
548.8	0.97466
549.0	0.9753
549.2	0.97679
549.4	0.97499
549.6	0.98296
549.8	0.97545
550.0	0.97896
550.2	0.98814
550.4	0.98389
550.6	0.98089
550.8	0.98384
551.0	0.98249
551.2	0.9805
551.4	0.98019
551.6	0.97504
551.8	0.98159
552.0	0.97337
552.2	0.97887
552.4	0.97552
552.6	0.97827
552.8	0.97738
553.0	0.9759
553.2	0.9699
553.4	0.97151
553.6	0.97428
553.8	0.97749
554.0	0.96749
554.2	0.9706
554.4	0.97242
554.6	0.96795
554.8	0.97392
555.0	0.97422
555.2	0.97554
555.4	0.97191
555.6	0.97701
555.8	0.97628
556.0	0.97838
556.2	0.98293
556.4	0.98055
556.6	0.98078
556.8	0.98388
557.0	0.98894
557.2	0.98376
557.4	0.98509
557.6	0.98314
557.8	0.98142
558.0	0.97687
558.2	0.97819
558.4	0.97759
558.6	0.9817
558.8	0.97759
559.0	0.97793
559.2	0.98318
559.4	0.97839
559.6	0.97078
559.8	0.97396
560.0	0.97807
560.2	0.97828
560.4	0.97591
560.6	0.9702
560.8	0.97279
561.0	0.97642
561.2	0.97225
561.4	0.97816
561.6	0.97322
561.8	0.97334
562.0	0.97795
562.2	0.97643
562.4	0.97086
562.6	0.97255
562.8	0.97503
563.0	0.97764
563.2	0.97387
563.4	0.97276
563.6	0.97747
563.8	0.97695
564.0	0.9782
564.2	0.98007
564.4	0.98257
564.6	0.98309
564.8	0.98144
565.0	0.98003
565.2	0.98219
565.4	0.983
565.6	0.98437
565.8	0.98508
566.0	0.98201
566.2	0.98462
566.4	0.98259
566.6	0.98374
566.8	0.98312
567.0	0.9824
567.2	0.98067
567.4	0.97977
567.6	0.97733
567.8	0.97755
568.0	0.97852
568.2	0.9778
568.4	0.97982
568.6	0.97769
568.8	0.9772
569.0	0.9796
569.2	0.97846
569.4	0.97368
569.6	0.97294
569.8	0.97362
570.0	0.9706
570.2	0.97303
570.4	0.97584
570.6	0.97706
570.8	0.97596
571.0	0.97728
571.2	0.9763
571.4	0.97426
571.6	0.97528
571.8	0.97664
572.0	0.97872
572.2	0.98241
572.4	0.98265
572.6	0.98151
572.8	0.98358
573.0	0.98194
573.2	0.98184
573.4	0.98616
573.6	0.98874
573.8	0.98276
574.0	0.976
574.2	0.98101
574.4	0.98287
574.6	0.98084
574.8	0.98703
575.0	0.98532
575.2	0.97843
575.4	0.97407
575.6	0.97465
575.8	0.97905
576.0	0.97665
576.2	0.97731
576.4	0.98052
576.6	0.9781
576.8	0.97325
577.0	0.9712
577.2	0.97716
577.4	0.98088
577.6	0.97767
577.8	0.97588
578.0	0.97218
578.2	0.96945
578.4	0.97935
578.6	0.98018
578.8	0.97628
579.0	0.97793
579.2	0.98504
579.4	0.98502
579.6	0.98235
579.8	0.9825
580.0	0.9836
580.2	0.98311
580.4	0.9825
580.6	0.97984
580.8	0.98021
581.0	0.98423
581.2	0.98703
581.4	0.98098
581.6	0.98184
581.8	0.98993
582.0	0.98728
582.2	0.98483
582.4	0.98216
582.6	0.98489
582.8	0.98502
583.0	0.98429
583.2	0.98135
583.4	0.98438
583.6	0.98264
583.8	0.9747
584.0	0.97938
584.2	0.97485
584.4	0.97465
584.6	0.98032
584.8	0.97996
585.0	0.97614
585.2	0.97524
585.4	0.97634
585.6	0.9759
585.8	0.96895
586.0	0.97452
586.2	0.97575
586.4	0.97825
586.6	0.97809
586.8	0.97428
587.0	0.97332
587.2	0.97513
587.4	0.9758
587.6	0.97737
587.8	0.97572
588.0	0.97323
588.2	0.97689
588.4	0.97931
588.6	0.97803
588.8	0.98128
589.0	0.98222
589.2	0.98247
589.4	0.97774
589.6	0.97954
589.8	0.98867
590.0	0.98753
590.2	0.98283
590.4	0.97901
590.6	0.98134
590.8	0.98473
591.0	0.98089
591.2	0.985
591.4	0.98835
591.6	0.98852
591.8	0.98558
592.0	0.98921
592.2	0.98934
592.4	0.98814
592.6	0.98423
592.8	0.98496
593.0	0.97502
593.2	0.98113
593.4	0.9878
593.6	0.98911
593.8	0.98075
594.0	0.98077
594.2	0.98594
594.4	0.98115
594.6	0.97943
594.8	0.98052
595.0	0.97752
595.2	0.97322
595.4	0.96927
595.6	0.96924
595.8	0.97808
596.0	0.98236
596.2	0.98033
596.4	0.98112
596.6	0.97164
596.8	0.98186
597.0	0.9802
597.2	0.97314
597.4	0.97612
597.6	0.97699
597.8	0.97388
598.0	0.9771
598.2	0.98279
598.4	0.98016
598.6	0.97724
598.8	0.97431
599.0	0.97565
599.2	0.98022
599.4	0.9801
599.6	0.97837
599.8	0.97742
600.0	0.97554
600.2	0.98003
600.4	0.98426
