Typical Measured Spectrum of Semrock FF555-Di03 Optical Filter	
For wavelengths between 320 and 1120 nm, values near or below 3e-7 (Optical Density 6.5) are measurement noise limited.
For wavelengths < 320 nm and > 1120 nm, values near or below 3e-6 (Optical Density 5.5) are measurement noise limited. 
Data format:  Wavelength (nm) <tab> Transmission (0 to 1)
340.0	2.1975e-04
340.2	1.7248e-04
340.4	1.8578e-04
340.6	2.2966e-04
340.8	2.4037e-04
341.0	2.0498e-04
341.2	2.6169e-04
341.4	2.717e-04
341.6	3.1149e-04
341.8	4.1637e-04
342.0	6.4222e-04
342.2	0.00109
342.4	0.00169
342.6	0.00254
342.8	0.00329
343.0	0.00391
343.2	0.00425
343.4	0.00457
343.6	0.00456
343.8	0.00437
344.0	0.00389
344.2	0.00378
344.4	0.0045
344.6	0.00656
344.8	0.01162
345.0	0.02168
345.2	0.03551
345.4	0.04999
345.6	0.06327
345.8	0.07393
346.0	0.0789
346.2	0.0787
346.4	0.07328
346.6	0.06354
346.8	0.05122
347.0	0.03892
347.2	0.03221
347.4	0.02881
347.6	0.0271
347.8	0.02439
348.0	0.02205
348.2	0.01886
348.4	0.01637
348.6	0.01389
348.8	0.01203
349.0	0.01065
349.2	0.00985
349.4	0.01021
349.6	0.01083
349.8	0.012
350.0	0.0132
350.2	0.01411
350.4	0.01483
350.6	0.01547
350.8	0.01558
351.0	0.01503
351.2	0.01473
351.4	0.01366
351.6	0.01258
351.8	0.01174
352.0	0.0113
352.2	0.01156
352.4	0.01229
352.6	0.01353
352.8	0.01469
353.0	0.01608
353.2	0.01817
353.4	0.0185
353.6	0.01935
353.8	0.01881
354.0	0.01814
354.2	0.01648
354.4	0.01484
354.6	0.01337
354.8	0.01231
355.0	0.01187
355.2	0.01204
355.4	0.01285
355.6	0.01448
355.8	0.01645
356.0	0.01833
356.2	0.02018
356.4	0.0216
356.6	0.02159
356.8	0.02104
357.0	0.01988
357.2	0.0177
357.4	0.0154
357.6	0.01391
357.8	0.01272
358.0	0.01205
358.2	0.0123
358.4	0.01352
358.6	0.01487
358.8	0.01707
359.0	0.01867
359.2	0.02046
359.4	0.02129
359.6	0.02181
359.8	0.02089
360.0	0.01941
360.2	0.01755
360.4	0.01529
360.6	0.01306
360.8	0.01165
361.0	0.01086
361.2	0.01054
361.4	0.01064
361.6	0.01125
361.8	0.0121
362.0	0.0125
362.2	0.01295
362.4	0.01294
362.6	0.01252
362.8	0.01198
363.0	0.01062
363.2	0.0093
363.4	0.00792
363.6	0.00643
363.8	0.00569
364.0	0.00496
364.2	0.00443
364.4	0.00406
364.6	0.00434
364.8	0.00448
365.0	0.00484
365.2	0.00504
365.4	0.006
365.6	0.00621
365.8	0.00668
366.0	0.00646
366.2	0.00662
366.4	0.00644
366.6	0.0061
366.8	0.00549
367.0	0.00477
367.2	0.00433
367.4	0.00371
367.6	0.0034
367.8	0.00352
368.0	0.00361
368.2	0.00337
368.4	0.00407
368.6	0.00439
368.8	0.00578
369.0	0.00596
369.2	0.00715
369.4	0.00819
369.6	0.00863
369.8	0.00937
370.0	0.00927
370.2	0.00934
370.4	0.00848
370.6	0.00784
370.8	0.00682
371.0	0.0067
371.2	0.00601
371.4	0.00561
371.6	0.00583
371.8	0.00557
372.0	0.00654
372.2	0.00766
372.4	0.00908
372.6	0.01003
372.8	0.0108
373.0	0.01164
373.2	0.01199
373.4	0.0119
373.6	0.01108
373.8	0.01059
374.0	0.00906
374.2	0.00841
374.4	0.00678
374.6	0.0064
374.8	0.00517
375.0	0.00486
375.2	0.00448
375.4	0.00488
375.6	0.00511
375.8	0.00559
376.0	0.00604
376.2	0.0064
376.4	0.00686
376.6	0.00723
376.8	0.00694
377.0	0.00722
377.2	0.00714
377.4	0.00638
377.6	0.00617
377.8	0.00535
378.0	0.00495
378.2	0.00428
378.4	0.00391
378.6	0.00387
378.8	0.00359
379.0	0.00376
379.2	0.00379
379.4	0.00415
379.6	0.00455
379.8	0.00542
380.0	0.00622
380.2	0.0068
380.4	0.00744
380.6	0.00826
380.8	0.00857
381.0	0.0086
381.2	0.00814
381.4	0.00763
381.6	0.00698
381.8	0.00642
382.0	0.00595
382.2	0.00502
382.4	0.00488
382.6	0.00468
382.8	0.00475
383.0	0.00467
383.2	0.00534
383.4	0.00579
383.6	0.00614
383.8	0.00682
384.0	0.00689
384.2	0.0077
384.4	0.0074
384.6	0.00754
384.8	0.00722
385.0	0.00611
385.2	0.00557
385.4	0.0047
385.6	0.00414
385.8	0.00347
386.0	0.00297
386.2	0.00245
386.4	0.00275
386.6	0.00242
386.8	0.00247
387.0	0.00226
387.2	0.00241
387.4	0.00268
387.6	0.00289
387.8	0.00348
388.0	0.00344
388.2	0.00407
388.4	0.00421
388.6	0.00468
388.8	0.00478
389.0	0.00483
389.2	0.00448
389.4	0.00457
389.6	0.00391
389.8	0.00367
390.0	0.00315
390.2	0.00307
390.4	0.00297
390.6	0.0028
390.8	0.00295
391.0	0.00285
391.2	0.00308
391.4	0.00332
391.6	0.00362
391.8	0.00357
392.0	0.0044
392.2	0.00434
392.4	0.00473
392.6	0.00514
392.8	0.00583
393.0	0.00652
393.2	0.00791
393.4	0.0084
393.6	0.00923
393.8	0.01003
394.0	0.01039
394.2	0.01055
394.4	0.01046
394.6	0.01031
394.8	0.00948
395.0	0.00903
395.2	0.00895
395.4	0.00898
395.6	0.00913
395.8	0.00945
396.0	0.0102
396.2	0.01175
396.4	0.01362
396.6	0.01525
396.8	0.01712
397.0	0.01841
397.2	0.01924
397.4	0.01939
397.6	0.01898
397.8	0.01769
398.0	0.016
398.2	0.01372
398.4	0.01172
398.6	0.00976
398.8	0.00804
399.0	0.007
399.2	0.00607
399.4	0.00549
399.6	0.0049
399.8	0.00528
400.0	0.0052
400.2	0.00586
400.4	0.00617
400.6	0.00687
400.8	0.00738
401.0	0.00802
401.2	0.00857
401.4	0.00899
401.6	0.00947
401.8	0.00933
402.0	0.00928
402.2	0.00848
402.4	0.0082
402.6	0.00753
402.8	0.00662
403.0	0.00591
403.2	0.00526
403.4	0.00473
403.6	0.00425
403.8	0.00433
404.0	0.00406
404.2	0.00405
404.4	0.0041
404.6	0.00434
404.8	0.00488
405.0	0.00556
405.2	0.00671
405.4	0.00793
405.6	0.00969
405.8	0.0116
406.0	0.01382
406.2	0.01536
406.4	0.01673
406.6	0.01747
406.8	0.01781
407.0	0.01699
407.2	0.01598
407.4	0.01418
407.6	0.01256
407.8	0.01024
408.0	0.00835
408.2	0.00673
408.4	0.00539
408.6	0.00474
408.8	0.00427
409.0	0.00389
409.2	0.00356
409.4	0.00361
409.6	0.00364
409.8	0.00368
410.0	0.00389
410.2	0.00414
410.4	0.00437
410.6	0.00468
410.8	0.00547
411.0	0.00609
411.2	0.00709
411.4	0.00811
411.6	0.00929
411.8	0.01063
412.0	0.01207
412.2	0.01381
412.4	0.01545
412.6	0.01682
412.8	0.01791
413.0	0.01874
413.2	0.01951
413.4	0.01982
413.6	0.0197
413.8	0.01996
414.0	0.01947
414.2	0.01952
414.4	0.0194
414.6	0.01924
414.8	0.01944
415.0	0.01924
415.2	0.01943
415.4	0.01947
415.6	0.01936
415.8	0.01923
416.0	0.01911
416.2	0.01865
416.4	0.01815
416.6	0.01732
416.8	0.01677
417.0	0.01605
417.2	0.01544
417.4	0.01492
417.6	0.01466
417.8	0.01402
418.0	0.01381
418.2	0.01373
418.4	0.01379
418.6	0.01403
418.8	0.01442
419.0	0.01489
419.2	0.01565
419.4	0.01644
419.6	0.01715
419.8	0.01801
420.0	0.01878
420.2	0.01956
420.4	0.01992
420.6	0.02034
420.8	0.02042
421.0	0.02025
421.2	0.01987
421.4	0.01943
421.6	0.01858
421.8	0.01765
422.0	0.01675
422.2	0.01604
422.4	0.01509
422.6	0.01456
422.8	0.01411
423.0	0.01375
423.2	0.01357
423.4	0.0135
423.6	0.01364
423.8	0.01359
424.0	0.01363
424.2	0.01414
424.4	0.01441
424.6	0.01505
424.8	0.01534
425.0	0.01572
425.2	0.0161
425.4	0.01622
425.6	0.0162
425.8	0.01636
426.0	0.01612
426.2	0.01594
426.4	0.01535
426.6	0.01503
426.8	0.01432
427.0	0.01385
427.2	0.01329
427.4	0.01289
427.6	0.0123
427.8	0.01216
428.0	0.01174
428.2	0.0118
428.4	0.0117
428.6	0.01163
428.8	0.01196
429.0	0.01201
429.2	0.0124
429.4	0.0126
429.6	0.01311
429.8	0.01356
430.0	0.01408
430.2	0.01474
430.4	0.0151
430.6	0.01586
430.8	0.01647
431.0	0.01662
431.2	0.01692
431.4	0.01709
431.6	0.0172
431.8	0.01721
432.0	0.01703
432.2	0.01679
432.4	0.01638
432.6	0.01623
432.8	0.01575
433.0	0.01515
433.2	0.01501
433.4	0.01456
433.6	0.01438
433.8	0.01416
434.0	0.01402
434.2	0.01403
434.4	0.01409
434.6	0.01404
434.8	0.01422
435.0	0.0145
435.2	0.01499
435.4	0.01534
435.6	0.0159
435.8	0.01638
436.0	0.017
436.2	0.01763
436.4	0.01832
436.6	0.01885
436.8	0.01922
437.0	0.01969
437.2	0.02
437.4	0.02025
437.6	0.02021
437.8	0.01994
438.0	0.01986
438.2	0.01942
438.4	0.01911
438.6	0.01853
438.8	0.01786
439.0	0.01719
439.2	0.01649
439.4	0.01581
439.6	0.01512
439.8	0.01457
440.0	0.01395
440.2	0.01362
440.4	0.01335
440.6	0.01299
440.8	0.01298
441.0	0.0127
441.2	0.01265
441.4	0.01279
441.6	0.01296
441.8	0.01318
442.0	0.0132
442.2	0.01353
442.4	0.01394
442.6	0.01418
442.8	0.01455
443.0	0.01493
443.2	0.01515
443.4	0.01541
443.6	0.01544
443.8	0.01565
444.0	0.01548
444.2	0.01538
444.4	0.0151
444.6	0.01472
444.8	0.01421
445.0	0.01376
445.2	0.01339
445.4	0.01285
445.6	0.01229
445.8	0.0118
446.0	0.0114
446.2	0.01098
446.4	0.01049
446.6	0.0103
446.8	0.01022
447.0	0.00999
447.2	0.01013
447.4	0.00997
447.6	0.01021
447.8	0.01014
448.0	0.01056
448.2	0.0109
448.4	0.01105
448.6	0.01144
448.8	0.01169
449.0	0.01213
449.2	0.01243
449.4	0.01272
449.6	0.0127
449.8	0.01274
450.0	0.01279
450.2	0.01282
450.4	0.01248
450.6	0.01229
450.8	0.01193
451.0	0.01158
451.2	0.01127
451.4	0.01075
451.6	0.01027
451.8	0.00989
452.0	0.00964
452.2	0.0089
452.4	0.00878
452.6	0.00839
452.8	0.00814
453.0	0.00799
453.2	0.00785
453.4	0.00772
453.6	0.00766
453.8	0.00769
454.0	0.00767
454.2	0.00769
454.4	0.00786
454.6	0.00792
454.8	0.00803
455.0	0.00817
455.2	0.00833
455.4	0.0084
455.6	0.00844
455.8	0.00855
456.0	0.00843
456.2	0.00841
456.4	0.00833
456.6	0.00814
456.8	0.00801
457.0	0.00781
457.2	0.00758
457.4	0.00735
457.6	0.00699
457.8	0.00684
458.0	0.00643
458.2	0.0062
458.4	0.00581
458.6	0.0055
458.8	0.0054
459.0	0.00508
459.2	0.00499
459.4	0.00484
459.6	0.00472
459.8	0.00455
460.0	0.00459
460.2	0.00452
460.4	0.00452
460.6	0.00457
460.8	0.00472
461.0	0.00478
461.2	0.00482
461.4	0.00494
461.6	0.00514
461.8	0.00531
462.0	0.0055
462.2	0.00573
462.4	0.00583
462.6	0.00608
462.8	0.00635
463.0	0.00641
463.2	0.0066
463.4	0.00654
463.6	0.00662
463.8	0.00661
464.0	0.00665
464.2	0.00651
464.4	0.00632
464.6	0.00626
464.8	0.00598
465.0	0.00576
465.2	0.00547
465.4	0.00521
465.6	0.00516
465.8	0.00477
466.0	0.00459
466.2	0.0044
466.4	0.00416
466.6	0.00405
466.8	0.00391
467.0	0.00381
467.2	0.00371
467.4	0.00362
467.6	0.00359
467.8	0.00354
468.0	0.0036
468.2	0.00357
468.4	0.00378
468.6	0.00386
468.8	0.0039
469.0	0.00402
469.2	0.00422
469.4	0.0045
469.6	0.00472
469.8	0.00492
470.0	0.00518
470.2	0.00554
470.4	0.00587
470.6	0.00616
470.8	0.00645
471.0	0.00674
471.2	0.00702
471.4	0.00723
471.6	0.00747
471.8	0.00753
472.0	0.00758
472.2	0.00758
472.4	0.00758
472.6	0.00753
472.8	0.00729
473.0	0.00724
473.2	0.00703
473.4	0.00684
473.6	0.00654
473.8	0.00631
474.0	0.00611
474.2	0.00595
474.4	0.00571
474.6	0.00558
474.8	0.00543
475.0	0.00522
475.2	0.00524
475.4	0.00522
475.6	0.00534
475.8	0.0054
476.0	0.00567
476.2	0.0059
476.4	0.0063
476.6	0.00676
476.8	0.00738
477.0	0.00786
477.2	0.00864
477.4	0.00953
477.6	0.01033
477.8	0.01128
478.0	0.01234
478.2	0.01339
478.4	0.01442
478.6	0.01534
478.8	0.01644
479.0	0.01744
479.2	0.01826
479.4	0.01922
479.6	0.0199
479.8	0.02032
480.0	0.02071
480.2	0.02113
480.4	0.02112
480.6	0.02126
480.8	0.0211
481.0	0.02102
481.2	0.02058
481.4	0.02019
481.6	0.0198
481.8	0.01942
482.0	0.01901
482.2	0.01873
482.4	0.01827
482.6	0.01824
482.8	0.01803
483.0	0.01803
483.2	0.01813
483.4	0.01853
483.6	0.01904
483.8	0.01951
484.0	0.02024
484.2	0.021
484.4	0.02186
484.6	0.0226
484.8	0.02314
485.0	0.02353
485.2	0.02377
485.4	0.02346
485.6	0.02297
485.8	0.02208
486.0	0.02098
486.2	0.01963
486.4	0.01782
486.6	0.01621
486.8	0.01451
487.0	0.01281
487.2	0.01113
487.4	0.00967
487.6	0.00842
487.8	0.00742
488.0	0.00653
488.2	0.00582
488.4	0.00532
488.6	0.00487
488.8	0.0045
489.0	0.00424
489.2	0.00396
489.4	0.00383
489.6	0.00379
489.8	0.00365
490.0	0.00363
490.2	0.00359
490.4	0.00365
490.6	0.00376
490.8	0.00378
491.0	0.0039
491.2	0.00406
491.4	0.00414
491.6	0.00425
491.8	0.00449
492.0	0.00462
492.2	0.00483
492.4	0.00493
492.6	0.0051
492.8	0.00514
493.0	0.00522
493.2	0.00517
493.4	0.00505
493.6	0.00494
493.8	0.00467
494.0	0.00457
494.2	0.00426
494.4	0.00391
494.6	0.0036
494.8	0.0033
495.0	0.00295
495.2	0.00266
495.4	0.00239
495.6	0.00212
495.8	0.00194
496.0	0.00173
496.2	0.00157
496.4	0.00145
496.6	0.00137
496.8	0.00132
497.0	0.0012
497.2	0.00116
497.4	0.00112
497.6	0.00102
497.8	0.00101
498.0	0.00103
498.2	0.00104
498.4	0.00103
498.6	0.00104
498.8	9.7966e-04
499.0	0.00102
499.2	0.00105
499.4	0.00108
499.6	0.00112
499.8	0.00116
500.0	0.00113
500.2	0.00118
500.4	0.00126
500.6	0.00137
500.8	0.00146
501.0	0.00159
501.2	0.00179
501.4	0.00194
501.6	0.00222
501.8	0.00239
502.0	0.0027
502.2	0.00285
502.4	0.00307
502.6	0.00324
502.8	0.00345
503.0	0.00352
503.2	0.00351
503.4	0.00352
503.6	0.00344
503.8	0.00337
504.0	0.00317
504.2	0.00304
504.4	0.00281
504.6	0.00263
504.8	0.00233
505.0	0.00208
505.2	0.00195
505.4	0.00171
505.6	0.00151
505.8	0.00134
506.0	0.00129
506.2	0.00112
506.4	0.0011
506.6	9.8499e-04
506.8	9.1871e-04
507.0	9.1368e-04
507.2	8.4774e-04
507.4	9.0941e-04
507.6	8.4701e-04
507.8	8.8056e-04
508.0	8.0901e-04
508.2	8.4994e-04
508.4	8.4536e-04
508.6	8.8979e-04
508.8	8.5201e-04
509.0	9.6268e-04
509.2	9.4079e-04
509.4	9.8009e-04
509.6	0.00114
509.8	0.00114
510.0	0.00129
510.2	0.00145
510.4	0.00168
510.6	0.00192
510.8	0.0023
511.0	0.0028
511.2	0.00345
511.4	0.00426
511.6	0.00516
511.8	0.0062
512.0	0.0072
512.2	0.00826
512.4	0.00914
512.6	0.00995
512.8	0.01055
513.0	0.01088
513.2	0.01094
513.4	0.01089
513.6	0.01055
513.8	0.00996
514.0	0.00913
514.2	0.00808
514.4	0.00706
514.6	0.00597
514.8	0.00491
515.0	0.00392
515.2	0.00311
515.4	0.00246
515.6	0.00198
515.8	0.00169
516.0	0.00142
516.2	0.00128
516.4	0.0011
516.6	9.761e-04
516.8	8.8872e-04
517.0	8.3162e-04
517.2	7.672e-04
517.4	7.4663e-04
517.6	7.1583e-04
517.8	6.4207e-04
518.0	6.1956e-04
518.2	5.5416e-04
518.4	6.033e-04
518.6	5.3423e-04
518.8	5.0516e-04
519.0	5.0223e-04
519.2	4.904e-04
519.4	4.854e-04
519.6	4.7415e-04
519.8	5.1133e-04
520.0	4.8311e-04
520.2	4.8548e-04
520.4	4.6533e-04
520.6	4.9964e-04
520.8	4.95e-04
521.0	5.0438e-04
521.2	4.6649e-04
521.4	4.9124e-04
521.6	5.0759e-04
521.8	5.2747e-04
522.0	5.4503e-04
522.2	4.9857e-04
522.4	5.2903e-04
522.6	5.7329e-04
522.8	5.5764e-04
523.0	5.5581e-04
523.2	5.8056e-04
523.4	5.7552e-04
523.6	5.9814e-04
523.8	6.094e-04
524.0	6.7302e-04
524.2	7.001e-04
524.4	6.8125e-04
524.6	7.4231e-04
524.8	7.2717e-04
525.0	7.5047e-04
525.2	7.6772e-04
525.4	8.5268e-04
525.6	8.3649e-04
525.8	8.5348e-04
526.0	8.9753e-04
526.2	9.3914e-04
526.4	9.7528e-04
526.6	9.9968e-04
526.8	0.00112
527.0	0.00112
527.2	0.00117
527.4	0.00123
527.6	0.00134
527.8	0.00142
528.0	0.00148
528.2	0.00162
528.4	0.00172
528.6	0.00184
528.8	0.00196
529.0	0.00212
529.2	0.00226
529.4	0.00247
529.6	0.00262
529.8	0.00286
530.0	0.00311
530.2	0.0033
530.4	0.00353
530.6	0.00376
530.8	0.00403
531.0	0.00426
531.2	0.00449
531.4	0.00466
531.6	0.00491
531.8	0.00507
532.0	0.00523
532.2	0.00533
532.4	0.00541
532.6	0.00544
532.8	0.00538
533.0	0.00545
533.2	0.00528
533.4	0.00524
533.6	0.00511
533.8	0.00492
534.0	0.00481
534.2	0.00459
534.4	0.00443
534.6	0.00424
534.8	0.00413
535.0	0.00397
535.2	0.00386
535.4	0.00373
535.6	0.00368
535.8	0.00364
536.0	0.00357
536.2	0.00354
536.4	0.00348
536.6	0.00346
536.8	0.00342
537.0	0.0034
537.2	0.00333
537.4	0.00329
537.6	0.00319
537.8	0.00311
538.0	0.003
538.2	0.00296
538.4	0.00284
538.6	0.00274
538.8	0.00268
539.0	0.00258
539.2	0.00258
539.4	0.00255
539.6	0.00256
539.8	0.00261
540.0	0.00263
540.2	0.00267
540.4	0.00268
540.6	0.00277
540.8	0.00278
541.0	0.00289
541.2	0.00295
541.4	0.00301
541.6	0.00309
541.8	0.00317
542.0	0.00328
542.2	0.00336
542.4	0.00349
542.6	0.00364
542.8	0.0038
543.0	0.00487
543.2	0.00597
543.4	0.00613
543.6	0.00631
543.8	0.00653
544.0	0.00675
544.2	0.00697
544.4	0.00728
544.6	0.00763
544.8	0.00794
545.0	0.00835
545.2	0.00876
545.4	0.0092
545.6	0.00972
545.8	0.01027
546.0	0.01081
546.2	0.01146
546.4	0.0122
546.6	0.01308
546.8	0.01393
547.0	0.01494
547.2	0.01605
547.4	0.0173
547.6	0.01874
547.8	0.02042
548.0	0.02208
548.2	0.02443
548.4	0.02639
548.6	0.02902
548.8	0.03183
549.0	0.03521
549.2	0.03903
549.4	0.04328
549.6	0.04833
549.8	0.05358
550.0	0.05991
550.2	0.06718
550.4	0.07594
550.6	0.08478
550.8	0.09496
551.0	0.1067
551.2	0.11899
551.4	0.13315
551.6	0.14866
551.8	0.16538
552.0	0.18288
552.2	0.20151
552.4	0.2217
552.6	0.24232
552.8	0.26386
553.0	0.28451
553.2	0.30531
553.4	0.3249
553.6	0.34474
553.8	0.36261
554.0	0.37951
554.2	0.39552
554.4	0.41045
554.6	0.42316
554.8	0.4333
555.0	0.4432
555.2	0.45141
555.4	0.45905
555.6	0.46425
555.8	0.468
556.0	0.47197
556.2	0.47389
556.4	0.47817
556.6	0.48181
556.8	0.48692
557.0	0.49205
557.2	0.49723
557.4	0.50472
557.6	0.51398
557.8	0.52441
558.0	0.53656
558.2	0.55218
558.4	0.57061
558.6	0.5895
558.8	0.61152
559.0	0.63465
559.2	0.65874
559.4	0.68465
559.6	0.71146
559.8	0.74054
560.0	0.76898
560.2	0.79395
560.4	0.81929
560.6	0.84352
560.8	0.86754
561.0	0.88483
561.2	0.90427
561.4	0.92082
561.6	0.9339
561.8	0.94529
562.0	0.95425
562.2	0.96031
562.4	0.96416
562.6	0.97463
562.8	0.97879
563.0	0.97806
563.2	0.97856
563.4	0.97856
563.6	0.98076
563.8	0.98097
564.0	0.97784
564.2	0.97854
564.4	0.97956
564.6	0.97672
564.8	0.97671
565.0	0.97665
565.2	0.97604
565.4	0.97519
565.6	0.97459
565.8	0.97166
566.0	0.97036
566.2	0.97056
566.4	0.97393
566.6	0.97422
566.8	0.97318
567.0	0.97372
567.2	0.97273
567.4	0.97086
567.6	0.97219
567.8	0.97024
568.0	0.97148
568.2	0.96989
568.4	0.96989
568.6	0.97194
568.8	0.97333
569.0	0.97438
569.2	0.97564
569.4	0.97678
569.6	0.97796
569.8	0.97414
570.0	0.9754
570.2	0.97679
570.4	0.97938
570.6	0.97866
570.8	0.97574
571.0	0.97394
571.2	0.97714
571.4	0.98063
571.6	0.98032
571.8	0.97964
572.0	0.97934
572.2	0.97923
572.4	0.97861
572.6	0.97882
572.8	0.97743
573.0	0.97572
573.2	0.97836
573.4	0.97667
573.6	0.97898
573.8	0.98093
574.0	0.98045
574.2	0.98032
574.4	0.97962
574.6	0.97669
574.8	0.97694
575.0	0.97731
575.2	0.97602
575.4	0.97295
575.6	0.97587
575.8	0.977
576.0	0.97771
576.2	0.97508
576.4	0.97548
576.6	0.97319
576.8	0.97002
577.0	0.97085
577.2	0.97416
577.4	0.97375
577.6	0.97246
577.8	0.97119
578.0	0.96997
578.2	0.96964
578.4	0.97052
578.6	0.97076
578.8	0.96715
579.0	0.96915
579.2	0.9677
579.4	0.96566
579.6	0.96384
579.8	0.96656
580.0	0.96721
580.2	0.96871
580.4	0.96811
580.6	0.96952
580.8	0.97044
581.0	0.96971
581.2	0.96652
581.4	0.96706
581.6	0.96756
581.8	0.96701
582.0	0.96552
582.2	0.96753
582.4	0.96813
582.6	0.96815
582.8	0.96734
583.0	0.96719
583.2	0.96636
583.4	0.96736
583.6	0.9682
583.8	0.96899
584.0	0.97063
584.2	0.97276
584.4	0.9715
584.6	0.9712
584.8	0.96912
585.0	0.96824
585.2	0.97082
585.4	0.97103
585.6	0.9721
585.8	0.9744
586.0	0.97687
586.2	0.97633
586.4	0.97652
586.6	0.97731
586.8	0.97929
587.0	0.97775
587.2	0.97567
587.4	0.97624
587.6	0.97905
587.8	0.97873
588.0	0.9768
588.2	0.97776
588.4	0.97774
588.6	0.98212
588.8	0.97822
589.0	0.97989
589.2	0.97949
589.4	0.97839
589.6	0.977
589.8	0.97504
590.0	0.97616
590.2	0.97894
590.4	0.98047
590.6	0.98105
590.8	0.97905
591.0	0.9785
591.2	0.97872
591.4	0.97412
591.6	0.97111
591.8	0.97425
592.0	0.97479
592.2	0.97544
592.4	0.97592
592.6	0.97546
592.8	0.97967
593.0	0.97675
593.2	0.97577
593.4	0.97761
593.6	0.9776
593.8	0.97758
594.0	0.97915
594.2	0.97969
594.4	0.97735
594.6	0.97605
594.8	0.97737
595.0	0.97591
595.2	0.97528
595.4	0.97667
595.6	0.97782
595.8	0.9767
596.0	0.97613
596.2	0.97295
596.4	0.97218
596.6	0.97401
596.8	0.97526
597.0	0.97684
597.2	0.9794
597.4	0.97796
597.6	0.97661
597.8	0.9741
598.0	0.9724
598.2	0.97324
598.4	0.97322
598.6	0.97322
598.8	0.97328
599.0	0.97557
599.2	0.97616
599.4	0.97547
599.6	0.97687
599.8	0.97451
600.0	0.97634
600.2	0.97833
600.4	0.97765
